#SPECTRUM - MS
#20190701-APO-6-25-3.RAW
#FTMS + p NSI Full ms2 1000.0000@hcd300.00 [1000.0000-20000.0000]
#Scan #: 1277-1613
#RT: 5.36-6.79
#AV: 337
#Data points: 51778
Mass	Background
990.014550	0.000000
990.044094	0.000000
990.073639	0.000000
990.103185	0.000000
999.836240	0.000000
999.866225	0.000000
999.896210	0.000000
999.926197	0.000000
999.956186	0.712933
999.986176	7.085311
1000.016167	15.214585
1000.046160	20.566687
1000.076154	22.982234
1000.106149	26.384347
1000.136145	28.268022
1000.166143	33.351053
1000.196143	39.684236
1000.226143	40.862822
1000.256145	40.940454
1000.286149	40.347561
1000.316153	32.912762
1000.346159	28.708163
1000.376167	27.036245
1000.406175	23.541082
1000.436186	21.592781
1000.466197	21.033241
1000.496210	17.882676
1000.526224	22.605061
1000.556240	24.972762
1000.586256	26.054049
1000.616275	27.533791
1000.646294	30.068281
1000.676315	32.322522
1000.706337	31.824620
1000.736361	27.374084
1000.766386	17.049187
1000.796412	13.970454
1000.826440	16.497283
1000.856469	21.193506
1000.886499	29.280058
1000.916531	35.426906
1000.946564	36.146579
1000.976598	30.300474
1001.006634	22.690072
1001.036671	19.100156
1001.066710	20.399944
1001.096750	26.014433
1001.126791	27.369559
1001.156833	26.236584
1001.186877	28.607530
1001.216922	30.471871
1001.246969	29.600315
1001.277017	25.294024
1001.307066	22.230054
1001.337117	20.974703
1001.367169	18.842641
1001.397222	20.985631
1001.427277	22.686060
1001.457333	23.167096
1001.487390	28.571192
1001.517449	34.233628
1001.547509	40.073667
1001.577571	40.572747
1001.607634	31.000170
1001.637698	19.512333
1001.667763	14.194475
1001.697830	15.445811
1001.727898	20.696199
1001.757968	22.330491
1001.788039	20.148225
1001.818111	20.668568
1001.848185	23.154384
1001.878260	27.534785
1001.908336	31.710404
1001.938414	38.731333
1001.968493	39.857882
1001.998573	39.258899
1002.028655	34.657711
1002.058738	28.225038
1002.088823	18.726202
1002.118909	11.268150
1002.148996	7.674038
1002.179085	7.025405
1002.209174	10.077360
1002.239266	13.875210
1002.269358	14.726361
1002.299452	15.287277
1002.329548	16.686490
1002.359644	16.420246
1002.389742	21.528029
1002.419842	25.710756
1002.449942	27.270637
1002.480045	31.500796
1002.510148	36.785272
1002.540253	38.881449
1002.570359	37.331617
1002.600467	31.067551
1002.630576	25.028364
1002.660686	22.982602
1002.690797	19.980092
1002.720910	21.679529
1002.751025	26.415803
1002.781140	35.134546
1002.811257	40.664557
1002.841376	44.835841
1002.871495	44.321904
1002.901617	38.231027
1002.931739	34.142712
1002.961863	29.936877
1002.991988	24.782433
1003.022115	21.931836
1003.052242	23.086581
1003.082372	24.933440
1003.112502	26.935080
1003.142634	28.010896
1003.172768	26.839962
1003.202902	26.829372
1003.233038	27.336528
1003.263176	25.107898
1003.293314	23.795855
1003.323454	22.504032
1003.353596	22.966008
1003.383739	26.247192
1003.413883	27.524054
1003.444028	23.899151
1003.474175	20.054030
1003.504324	22.273605
1003.534473	27.345662
1003.564624	29.113086
1003.594777	25.274960
1003.624930	17.459369
1003.655085	8.946412
1003.685242	7.213465
1003.715399	7.443800
1003.745559	9.622248
1003.775719	13.389705
1003.805881	16.501803
1003.836044	17.094908
1003.866209	16.402848
1003.896375	14.002442
1003.926542	11.413217
1003.956711	10.941720
1003.986881	15.736716
1004.017052	25.414812
1004.047225	33.856601
1004.077399	35.748961
1004.107574	28.646683
1004.137751	19.811795
1004.167929	14.267221
1004.198109	14.861701
1004.228290	16.261157
1004.258472	17.949838
1004.288655	16.778469
1004.318840	13.569718
1004.349027	13.161726
1004.379214	15.165203
1004.409404	20.412130
1004.439594	24.746052
1004.469786	32.703717
1004.499979	40.352825
1004.530173	43.508823
1004.560369	42.032718
1004.590566	41.663770
1004.620765	40.437492
1004.650965	37.712285
1004.681166	30.059322
1004.711369	20.409094
1004.741573	13.351517
1004.771778	9.333420
1004.801985	11.651084
1004.832193	19.263399
1004.862403	26.750675
1004.892614	29.030837
1004.922826	24.428875
1004.953039	19.049817
1004.983254	19.924793
1005.013471	22.304067
1005.043688	25.004159
1005.073907	26.295764
1005.104128	26.256155
1005.134349	25.109873
1005.164572	32.743205
1005.194797	33.984752
1005.225023	34.208227
1005.255250	30.799221
1005.285478	29.539640
1005.315708	29.772480
1005.345940	29.409186
1005.376172	25.569459
1005.406406	20.433818
1005.436642	17.003832
1005.466878	22.586648
1005.497117	26.259502
1005.527356	28.459868
1005.557597	30.372721
1005.587839	27.195592
1005.618083	21.084078
1005.648328	15.764352
1005.678574	14.632532
1005.708821	18.431907
1005.739070	23.333618
1005.769321	28.147548
1005.799573	33.249236
1005.829826	35.649409
1005.860080	34.434090
1005.890336	28.530485
1005.920593	18.986962
1005.950852	15.995032
1005.981112	16.951106
1006.011373	20.456002
1006.041636	22.597825
1006.071900	22.243446
1006.102165	22.980140
1006.132432	26.537964
1006.162700	27.527765
1006.192970	27.287663
1006.223240	27.015579
1006.253513	24.161822
1006.283786	24.850041
1006.314061	21.773521
1006.344338	22.151049
1006.374615	23.350628
1006.404894	29.205898
1006.435175	34.195687
1006.465457	37.698498
1006.495740	38.802797
1006.526024	35.553211
1006.556310	28.261037
1006.586597	24.190289
1006.616886	21.850674
1006.647176	19.561073
1006.677467	23.274500
1006.707760	29.251700
1006.738054	29.392472
1006.768350	22.593637
1006.798647	15.547914
1006.828945	10.130735
1006.859244	7.554278
1006.889545	11.071350
1006.919848	17.197868
1006.950151	24.967669
1006.980456	28.471505
1007.010763	26.862962
1007.041070	28.334309
1007.071380	32.693122
1007.101690	40.969812
1007.132002	48.876829
1007.162315	47.212519
1007.192630	36.679194
1007.222946	25.401246
1007.253263	19.029513
1007.283582	17.745456
1007.313902	17.632877
1007.344224	17.381390
1007.374546	16.361465
1007.404871	14.324427
1007.435196	9.415462
1007.465523	5.151383
1007.495851	6.132374
1007.526181	15.156615
1007.556512	26.603203
1007.586845	33.228905
1007.617178	34.866741
1007.647513	30.068624
1007.677850	23.284180
1007.708188	16.518529
1007.738527	11.172234
1007.768868	13.461980
1007.799210	19.735308
1007.829553	30.681822
1007.859898	36.832215
1007.890244	36.585678
1007.920592	31.551989
1007.950940	31.572403
1007.981291	27.581421
1008.011642	30.170296
1008.041995	27.326415
1008.072350	21.964179
1008.102705	16.609564
1008.133062	23.802621
1008.163421	30.417428
1008.193781	37.480882
1008.224142	34.417826
1008.254504	30.993504
1008.284868	26.460064
1008.315234	22.247955
1008.345600	16.783094
1008.375968	17.517050
1008.406338	19.346861
1008.436709	26.824334
1008.467081	34.147580
1008.497454	33.177590
1008.527829	31.786246
1008.558206	27.471617
1008.588583	26.669672
1008.618962	30.872742
1008.649343	34.509694
1008.679724	35.119612
1008.710108	29.788681
1008.740492	20.682109
1008.770878	13.453987
1008.801265	19.534927
1008.831654	23.241903
1008.862044	26.120220
1008.892435	27.026271
1008.922828	26.789791
1008.953222	23.301734
1008.983618	24.821689
1009.014015	25.347330
1009.044413	26.252764
1009.074813	27.835948
1009.105214	27.564865
1009.135616	21.351983
1009.166020	15.941426
1009.196425	15.075516
1009.226831	15.419415
1009.257239	17.280003
1009.287649	20.497609
1009.318059	21.258796
1009.348471	20.944458
1009.378885	21.311056
1009.409299	21.810771
1009.439715	19.480415
1009.470133	18.632038
1009.500552	15.601314
1009.530972	13.053702
1009.561394	12.722492
1009.591817	15.228863
1009.622241	21.350997
1009.652667	29.675515
1009.683094	33.612912
1009.713522	35.435384
1009.743952	32.949179
1009.774384	33.273685
1009.804816	31.795618
1009.835250	24.772666
1009.865686	21.165278
1009.896122	21.477808
1009.926560	25.465717
1009.957000	31.828360
1009.987441	34.680940
1010.017883	30.029821
1010.048327	29.466677
1010.078772	26.713669
1010.109218	29.539488
1010.139666	30.268980
1010.170115	27.864989
1010.200566	27.652150
1010.231017	30.554155
1010.261471	28.739761
1010.291925	26.610595
1010.322381	23.032144
1010.352839	23.668744
1010.383298	26.063051
1010.413758	25.577308
1010.444219	21.765073
1010.474682	24.364613
1010.505146	23.921803
1010.535612	22.842147
1010.566079	18.286144
1010.596548	13.176428
1010.627017	11.411768
1010.657489	12.777400
1010.687961	21.650367
1010.718435	32.697875
1010.748910	40.319602
1010.779387	44.287702
1010.809865	40.287402
1010.840345	33.452864
1010.870825	32.779549
1010.901308	38.237469
1010.931791	41.935542
1010.962276	44.475560
1010.992763	42.248722
1011.023250	38.737441
1011.053739	38.803085
1011.084230	36.811409
1011.114722	31.278519
1011.145215	29.563202
1011.175710	27.202825
1011.206206	21.502674
1011.236703	19.552815
1011.267202	20.667602
1011.297702	31.033882
1011.328203	40.638785
1011.358706	46.636182
1011.389211	48.726946
1011.419716	45.266931
1011.450223	39.608957
1011.480732	39.304334
1011.511242	34.137397
1011.541753	31.791751
1011.572265	30.613384
1011.602779	34.324842
1011.633295	38.367842
1011.663811	38.011000
1011.694329	31.252631
1011.724849	22.681267
1011.755370	16.893777
1011.785892	18.906386
1011.816415	23.580640
1011.846940	23.577227
1011.877467	17.547512
1011.907995	12.632947
1011.938524	10.903162
1011.969054	13.250796
1011.999586	17.304732
1012.030119	17.971484
1012.060654	20.206389
1012.091190	22.170563
1012.121728	27.074264
1012.152266	25.511923
1012.182807	23.200322
1012.213348	20.259656
1012.243891	20.829893
1012.274435	22.665944
1012.304981	23.237937
1012.335528	19.787575
1012.366077	18.907124
1012.396627	21.268466
1012.427178	24.539563
1012.457730	24.959343
1012.488284	22.395757
1012.518840	16.681650
1012.549397	15.667388
1012.579955	15.288451
1012.610514	16.900124
1012.641075	17.023677
1012.671638	19.672715
1012.702201	24.332567
1012.732766	30.716348
1012.763333	29.538598
1012.793901	23.422480
1012.824470	16.785092
1012.855041	22.405434
1012.885613	30.033262
1012.916186	32.086182
1012.946761	34.444796
1012.977337	32.003916
1013.007914	31.905946
1013.038493	30.639278
1013.069074	30.713906
1013.099655	31.815806
1013.130238	34.797365
1013.160823	31.316572
1013.191409	32.221295
1013.221996	33.601045
1013.252585	34.430523
1013.283175	39.134839
1013.313766	40.025826
1013.344359	37.920803
1013.374953	34.401058
1013.405548	23.264280
1013.436145	13.124150
1013.466744	13.254872
1013.497343	20.361501
1013.527944	28.176707
1013.558547	35.171328
1013.589151	33.977520
1013.619756	30.298336
1013.650363	22.613092
1013.680971	19.061201
1013.711580	16.723837
1013.742191	17.037651
1013.772803	15.833765
1013.803417	13.870364
1013.834032	13.932221
1013.864648	16.623268
1013.895266	19.557240
1013.925885	26.960449
1013.956505	27.186107
1013.987127	24.271780
1014.017750	23.444435
1014.048375	26.863091
1014.079001	31.248451
1014.109629	33.058290
1014.140257	30.459195
1014.170888	26.936983
1014.201519	28.312023
1014.232152	25.311106
1014.262787	21.991178
1014.293422	14.292647
1014.324059	7.798929
1014.354698	4.208382
1014.385338	7.061963
1014.415979	12.802532
1014.446622	16.004006
1014.477266	16.847575
1014.507912	17.254985
1014.538558	23.075291
1014.569207	30.716817
1014.599856	35.752881
1014.630507	34.401879
1014.661160	30.847893
1014.691814	28.608839
1014.722469	29.870439
1014.753125	32.351626
1014.783783	30.571168
1014.814443	27.180293
1014.845103	24.737612
1014.875766	20.138133
1014.906429	17.146010
1014.937094	19.574359
1014.967760	28.902678
1014.998428	36.373117
1015.029097	38.944618
1015.059768	33.167065
1015.090440	25.207167
1015.121113	20.505276
1015.151788	22.016746
1015.182464	25.938966
1015.213141	23.692074
1015.243820	19.007405
1015.274500	17.750828
1015.305182	18.158803
1015.335865	26.863418
1015.366549	34.275955
1015.397235	34.050731
1015.427922	31.077385
1015.458611	29.616930
1015.489301	26.144701
1015.519992	25.515412
1015.550685	25.765327
1015.581379	27.080153
1015.612074	26.777772
1015.642771	22.875997
1015.673470	18.271178
1015.704169	14.148875
1015.734870	19.395474
1015.765573	25.141680
1015.796277	30.175595
1015.826982	37.608896
1015.857689	45.697026
1015.888397	49.150549
1015.919106	43.423901
1015.949817	29.457550
1015.980529	16.069130
1016.011243	14.598107
1016.041958	13.653853
1016.072674	12.367490
1016.103392	10.160569
1016.134111	13.200495
1016.164832	13.187192
1016.195554	19.710644
1016.226277	26.865590
1016.257002	32.354304
1016.287728	33.784596
1016.318456	33.494161
1016.349185	27.314255
1016.379915	19.429642
1016.410647	16.244315
1016.441380	24.918709
1016.472114	36.075628
1016.502850	38.585857
1016.533588	37.641091
1016.564326	30.191761
1016.595066	21.175039
1016.625808	16.502977
1016.656551	13.463522
1016.687295	13.437317
1016.718041	18.113375
1016.748788	20.240840
1016.779536	17.200822
1016.810286	10.411136
1016.841037	2.787982
1016.871790	2.288681
1016.902544	8.783967
1016.933299	13.618997
1016.964056	15.234385
1016.994815	12.527025
1017.025574	10.470168
1017.056335	9.764689
1017.087098	10.502752
1017.117861	11.998387
1017.148627	17.370123
1017.179393	26.645168
1017.210161	36.409622
1017.240931	44.591013
1017.271701	44.995230
1017.302474	38.584012
1017.333247	28.064290
1017.364022	19.387404
1017.394799	20.977997
1017.425576	25.638116
1017.456356	29.408887
1017.487136	29.143446
1017.517918	23.922605
1017.548701	18.250339
1017.579486	20.593163
1017.610272	22.934141
1017.641060	26.400179
1017.671849	26.109447
1017.702639	26.239291
1017.733431	32.001365
1017.764224	36.085759
1017.795019	34.184580
1017.825815	29.869382
1017.856612	30.482921
1017.887411	34.130733
1017.918211	37.856223
1017.949012	34.603093
1017.979815	24.362891
1018.010620	11.841136
1018.041425	7.567736
1018.072232	14.582752
1018.103041	23.864486
1018.133851	26.453395
1018.164662	21.850349
1018.195475	16.652203
1018.226289	22.465117
1018.257105	29.145529
1018.287921	35.931100
1018.318740	34.072066
1018.349559	29.957886
1018.380381	30.294735
1018.411203	32.670945
1018.442027	36.621181
1018.472852	38.363783
1018.503679	43.815607
1018.534507	49.155086
1018.565337	44.586925
1018.596168	35.465027
1018.627000	29.300022
1018.657834	25.458572
1018.688669	27.152939
1018.719505	28.139104
1018.750343	26.731992
1018.781182	29.094826
1018.812023	33.885164
1018.842865	38.286414
1018.873709	37.233284
1018.904554	31.123657
1018.935400	23.446367
1018.966248	21.903879
1018.997097	23.407994
1019.027947	23.222579
1019.058799	25.283262
1019.089653	27.247898
1019.120507	27.899276
1019.151363	29.470646
1019.182221	29.395247
1019.213080	32.939732
1019.243940	33.202645
1019.274802	32.977499
1019.305665	31.636530
1019.336529	37.649908
1019.367395	44.286448
1019.398263	48.175514
1019.429131	43.443813
1019.460002	33.778323
1019.490873	24.904577
1019.521746	23.766200
1019.552620	24.087603
1019.583496	21.111579
1019.614373	16.050443
1019.645252	15.882721
1019.676132	17.053212
1019.707013	23.975064
1019.737896	28.693571
1019.768780	34.442004
1019.799666	35.185680
1019.830553	29.699338
1019.861441	23.135565
1019.892331	17.839375
1019.923222	15.013287
1019.954115	16.994761
1019.985009	17.690267
1020.015904	18.778494
1020.046801	21.297145
1020.077699	24.572814
1020.108599	21.681042
1020.139500	16.984662
1020.170402	14.234872
1020.201306	15.119237
1020.232211	18.885131
1020.263118	29.519252
1020.294026	38.917930
1020.324935	40.693595
1020.355846	38.069343
1020.386758	37.102822
1020.417672	38.662282
1020.448587	42.753304
1020.479503	45.079190
1020.510421	39.630747
1020.541340	31.998608
1020.572261	28.043276
1020.603183	28.247882
1020.634107	32.157364
1020.665031	39.953421
1020.695958	40.096569
1020.726885	37.110592
1020.757815	37.258502
1020.788745	38.869848
1020.819677	38.704335
1020.850610	38.631809
1020.881545	33.847489
1020.912481	27.695095
1020.943419	21.652299
1020.974358	15.178870
1021.005298	9.817084
1021.036240	9.807472
1021.067183	14.463668
1021.098127	21.903281
1021.129073	28.296331
1021.160021	30.554485
1021.190970	28.658911
1021.221920	25.951041
1021.252871	28.872721
1021.283824	29.525365
1021.314779	32.346964
1021.345735	31.717161
1021.376692	30.108545
1021.407651	24.906871
1021.438611	21.790144
1021.469572	20.548305
1021.500535	24.843790
1021.531499	28.620585
1021.562465	29.361832
1021.593432	24.206948
1021.624400	20.623663
1021.655370	21.513337
1021.686342	26.483316
1021.717314	26.807386
1021.748289	28.130177
1021.779264	29.014297
1021.810241	30.541734
1021.841219	27.213812
1021.872199	23.160274
1021.903180	19.339505
1021.934163	18.087877
1021.965147	18.848199
1021.996132	23.817810
1022.027119	26.661226
1022.058107	26.006943
1022.089097	21.684110
1022.120088	16.792497
1022.151080	16.231392
1022.182074	24.913156
1022.213070	31.751532
1022.244066	33.352805
1022.275064	30.696304
1022.306064	23.377341
1022.337065	18.039105
1022.368067	16.933401
1022.399071	21.523922
1022.430076	29.287769
1022.461082	35.483355
1022.492090	37.454981
1022.523100	35.254914
1022.554111	30.419950
1022.585123	26.949381
1022.616136	26.862237
1022.647151	24.642041
1022.678168	23.928896
1022.709186	25.731047
1022.740205	28.546035
1022.771226	24.519307
1022.802248	18.308953
1022.833271	15.819942
1022.864296	20.097354
1022.895322	28.987184
1022.926350	32.941934
1022.957379	31.938864
1022.988410	28.969419
1023.019442	25.928343
1023.050475	24.324065
1023.081510	22.225334
1023.112546	21.830696
1023.143584	24.318747
1023.174623	25.362098
1023.205663	22.315630
1023.236705	14.231640
1023.267748	13.075986
1023.298793	15.414337
1023.329839	16.207093
1023.360886	16.058065
1023.391935	19.176321
1023.422986	25.866624
1023.454037	35.281806
1023.485090	41.153830
1023.516145	41.148465
1023.547201	34.086140
1023.578258	25.530952
1023.609317	27.313114
1023.640377	33.404018
1023.671439	41.936990
1023.702502	45.754026
1023.733566	42.832706
1023.764632	37.597251
1023.795700	35.101424
1023.826768	35.388537
1023.857838	31.018417
1023.888910	31.253083
1023.919983	33.749614
1023.951057	36.946198
1023.982133	38.164009
1024.013210	46.830345
1024.044289	44.303922
1024.075369	36.368137
1024.106450	26.913577
1024.137533	18.795918
1024.168617	15.147047
1024.199703	12.843077
1024.230790	8.711289
1024.261878	11.798692
1024.292968	16.398932
1024.324060	19.849669
1024.355152	26.982414
1024.386247	29.566360
1024.417342	30.792794
1024.448439	30.839926
1024.479538	26.633915
1024.510637	23.325532
1024.541739	22.649196
1024.572841	25.522034
1024.603945	31.394856
1024.635051	37.699140
1024.666158	36.999010
1024.697266	31.176264
1024.728376	23.137125
1024.759487	22.423517
1024.790600	21.463941
1024.821713	17.691350
1024.852829	12.970351
1024.883946	12.446978
1024.915064	12.227533
1024.946184	16.386477
1024.977305	23.871534
1025.008427	31.336202
1025.039551	29.144035
1025.070676	25.778738
1025.101803	21.081001
1025.132931	21.106297
1025.164061	22.112817
1025.195192	27.809983
1025.226324	31.456296
1025.257458	35.551068
1025.288593	37.253846
1025.319730	37.655982
1025.350868	37.225794
1025.382008	33.413799
1025.413149	33.150083
1025.444291	31.936462
1025.475435	29.344268
1025.506580	29.945693
1025.537727	32.155032
1025.568875	32.002000
1025.600024	30.451337
1025.631175	29.139741
1025.662327	26.066229
1025.693481	27.749849
1025.724636	34.276807
1025.755792	40.003625
1025.786950	44.014671
1025.818110	41.164885
1025.849271	41.085091
1025.880433	45.576513
1025.911596	52.931138
1025.942762	49.708209
1025.973928	37.791084
1026.005096	25.281626
1026.036265	17.535751
1026.067436	14.858385
1026.098608	14.036549
1026.129782	17.915422
1026.160957	23.182332
1026.192133	26.290288
1026.223311	24.700706
1026.254490	21.890661
1026.285671	21.617039
1026.316853	24.086420
1026.348037	24.850622
1026.379221	24.663145
1026.410408	23.445734
1026.441596	24.634184
1026.472785	23.156272
1026.503975	25.070288
1026.535168	30.580441
1026.566361	34.495582
1026.597556	37.231932
1026.628752	35.864593
1026.659950	33.959686
1026.691149	32.098609
1026.722350	32.398268
1026.753552	30.421026
1026.784755	33.111139
1026.815960	34.225509
1026.847166	33.382047
1026.878374	26.451383
1026.909583	20.012374
1026.940794	17.529858
1026.972006	21.714279
1027.003219	20.015202
1027.034434	17.262289
1027.065650	14.843029
1027.096868	17.848042
1027.128087	22.439247
1027.159307	29.519967
1027.190529	31.681168
1027.221753	30.109830
1027.252977	27.319855
1027.284204	24.965002
1027.315431	21.660060
1027.346660	22.608306
1027.377891	27.829027
1027.409123	33.635131
1027.440356	34.498609
1027.471591	33.027355
1027.502827	32.806137
1027.534064	33.209442
1027.565303	35.589560
1027.596544	36.147602
1027.627786	36.170749
1027.659029	34.420832
1027.690274	30.519685
1027.721520	29.663549
1027.752767	30.693566
1027.784016	29.994525
1027.815267	27.680125
1027.846519	23.499174
1027.877772	19.495542
1027.909027	17.836894
1027.940283	18.307341
1027.971540	20.453257
1028.002799	24.463801
1028.034060	29.762219
1028.065321	28.474631
1028.096585	23.593994
1028.127849	17.187561
1028.159115	15.152725
1028.190383	16.299336
1028.221652	15.897427
1028.252922	13.460403
1028.284194	9.469791
1028.315467	9.057534
1028.346742	13.691775
1028.378018	17.610854
1028.409296	19.059003
1028.440575	22.838741
1028.471855	30.718244
1028.503137	38.224868
1028.534420	40.860002
1028.565705	35.473060
1028.596991	27.946618
1028.628278	25.108482
1028.659567	29.757397
1028.690857	34.910117
1028.722149	38.355540
1028.753442	35.761969
1028.784737	30.979030
1028.816033	25.082123
1028.847331	20.549765
1028.878630	14.773456
1028.909930	15.279929
1028.941232	16.711785
1028.972535	20.518898
1029.003840	25.555871
1029.035146	31.366607
1029.066453	32.504577
1029.097762	26.402666
1029.129072	22.970284
1029.160384	22.163851
1029.191697	25.194006
1029.223012	26.094323
1029.254328	22.820156
1029.285646	24.267121
1029.316965	25.684703
1029.348285	24.393383
1029.379607	26.132559
1029.410930	24.775166
1029.442255	24.603297
1029.473581	28.231484
1029.504908	29.033058
1029.536237	30.522529
1029.567567	28.934599
1029.598899	25.898770
1029.630232	19.964836
1029.661567	15.268788
1029.692903	15.950589
1029.724241	22.675463
1029.755580	31.896526
1029.786920	38.435943
1029.818262	41.143665
1029.849605	35.621439
1029.880950	33.113610
1029.912296	31.180427
1029.943643	34.189668
1029.974992	32.151723
1030.006343	30.535419
1030.037695	31.356276
1030.069048	28.001084
1030.100403	24.588449
